File: CRYSTAL/Cyclopentadiene/crystal_raman.dat
# mode    freq(cm-1)    alpha    beta2    activity
3    24.71850   0.0765734   0.0527714   0.6332562
4    87.12140   0.0000000   0.6728368   4.70986
5    89.13950   0.0000000   0.1978924   1.38525
6    90.30978   0.0000000   0.0000000   0.0000000
7   356.226   0.0000000   0.6332570   4.4328
8   534.314   0.0000000   0.1583137   1.1082
9   664.444   0.0000000   0.0395787   0.2770506
10   695.399   0.0000000   0.0395786   0.2770504
11   808.867  -0.0765734   0.0527714   0.6332567
12   811.611  -0.1148601   0.0395785   0.8707277
13   897.168   0.0000000   0.6332555   4.43279
14   912.9   0.0000000   0.5145246   3.60167
15   920.446   0.0000000   0.3562070   2.49345
16   937.775   0.0000000   1.88507  13.1955
17   962.081   0.0000000   1.88507  13.1955
18  1005.79   0.2642298   1.09962  10.8391
19  1074.35   0.0000000   4.2414  29.6898
20  1087.26   0.0000000   1.88507  13.1955
21  1101.72   0.2642296   2.04216  17.4369
22  1214.25   0.0000000   0.0000000   0.0000000
23  1281.91   0.0000000   0.0000000   0.0000000
24  1361.18   0.5284594   8.16863  69.7475
25  1380.7   0.6605744   6.75483  66.9199
26  1507.24  -2.37807  23.0921  416.129
27  1592.12   0.0000000   1.88507  13.1955
28  2979.27   1.84961  10.0537  224.323
29  3021.15  -0.2642298  23.2492  165.886
30  3182.02   0.1321149  18.0652  127.242
31  3193.84  -0.0000000   9.42535  65.9775
32  3208.83   0.9248042   1.09962  46.1842
33  3225.31  -1.84961   5.8123  194.633